GCD Test
Bias: 5000.000000
CV_N4789_21_UR_DIODE_GR_Irradiated_Annealed_60C_50min
Date/Time: 5/13/2022 1:10:26 PM
Sensor Name: 
Type: P
Annealing Status: Irradiated and Annealed at 60C for 50 Minutes
Environment: 0C
Tester: Andrew Kent

Time Delay per Ramp Step (s): 0.500

CV Time Delay per Measurement (s) :0.500

AC Voltage (V): 0.500

Current Number of measurements per voltage: 1.000

IV Time Delay per Measurement (s) :0.000


BiasVoltage	LCR_Cp_freq1000.0	LCR_Cp_freq10000.0	LCR_Rp_freq1000.0	LCR_Rp_freq10000.0	Temperature	Air_Temp	Humidity	Dewpoint	
  -10.0000	1.501E-10	3.807E-11	5.029E+5	2.687E+5	    0.0026	   14.2063	   10.2638	  -16.6547	
  -20.0000	1.320E-10	4.042E-11	7.752E+5	3.340E+5	    0.0077	   14.1962	   10.2713	  -16.6537	
  -30.0000	1.184E-10	4.063E-11	9.816E+5	3.837E+5	    0.0128	   14.2090	   10.2698	  -16.6457	
  -40.0000	1.087E-10	4.027E-11	1.142E+6	4.242E+5	    0.0179	   14.2090	   10.2590	  -16.6581	
  -50.0000	1.015E-10	3.967E-11	1.270E+6	4.600E+5	    0.0154	   14.1717	   10.2587	  -16.6873	
  -60.0000	9.567E-11	3.894E-11	1.379E+6	4.935E+5	    0.0230	   14.1556	   10.2682	  -16.6886	
  -70.0000	9.101E-11	3.823E-11	1.473E+6	5.242E+5	    0.0230	   14.1514	   10.2596	  -16.7018	
  -80.0000	8.694E-11	3.755E-11	1.558E+6	5.528E+5	    0.0179	   14.1482	   10.2483	  -16.7175	
  -90.0000	8.339E-11	3.689E-11	1.639E+6	5.799E+5	    0.0230	   14.1452	   10.2438	  -16.7249	
 -100.0000	8.029E-11	3.616E-11	1.711E+6	6.084E+5	    0.0230	   14.1424	   10.2429	  -16.7282	
 -110.0000	7.759E-11	3.558E-11	1.774E+6	6.332E+5	    0.0281	   14.1424	   10.2492	  -16.7208	
 -120.0000	7.525E-11	3.495E-11	1.842E+6	6.594E+5	    0.0333	   14.1199	   10.2467	  -16.7411	
 -130.0000	7.282E-11	3.432E-11	1.894E+6	6.842E+5	    0.0051	   14.1293	   10.2511	  -16.7287	
 -140.0000	7.054E-11	3.374E-11	1.959E+6	7.089E+5	    0.0026	   14.1345	   10.2495	  -16.7265	
 -150.0000	6.854E-11	3.318E-11	2.015E+6	7.331E+5	   -0.0000	   14.1177	   10.2581	  -16.7296	
 -160.0000	6.666E-11	3.260E-11	2.065E+6	7.583E+5	    0.0026	   14.1158	   10.2609	  -16.7277	
 -170.0000	6.483E-11	3.202E-11	2.119E+6	7.843E+5	   -0.0000	   14.1109	   10.2521	  -16.7418	
 -180.0000	6.302E-11	3.146E-11	2.177E+6	8.103E+5	   -0.0051	   14.0980	   10.2524	  -16.7514	
 -190.0000	6.138E-11	3.089E-11	2.225E+6	8.378E+5	    0.0026	   14.0922	   10.2644	  -16.7419	
 -200.0000	5.966E-11	3.029E-11	2.279E+6	8.683E+5	   -0.0077	   14.0654	   10.2609	  -16.7667	
 -220.0000	5.626E-11	2.911E-11	2.409E+6	9.357E+5	   -0.0154	   14.0580	   10.2688	  -16.7632	
 -240.0000	5.280E-11	2.787E-11	2.568E+6	1.023E+6	   -0.0128	   14.0636	   10.2764	  -16.7501	
 -260.0000	4.913E-11	2.658E-11	2.775E+6	1.145E+6	    0.0102	   14.0476	   10.2834	  -16.7544	
 -280.0000	4.518E-11	2.531E-11	3.030E+6	1.321E+6	    0.0026	   14.0645	   10.2875	  -16.7366	
 -300.0000	4.103E-11	2.423E-11	3.348E+6	1.564E+6	   -0.0077	   14.0422	   10.2764	  -16.7666	
 -320.0000	3.732E-11	2.335E-11	3.757E+6	1.902E+6	   -0.0179	   14.0422	   10.2774	  -16.7655	
 -340.0000	3.359E-11	2.273E-11	4.207E+6	2.326E+6	   -0.0179	   14.0563	   10.2799	  -16.7517	
 -360.0000	3.029E-11	2.233E-11	4.651E+6	2.781E+6	   -0.0281	   14.0366	   10.2827	  -16.7636	
 -380.0000	2.854E-11	2.208E-11	5.078E+6	3.221E+6	   -0.0154	   14.0403	   10.2729	  -16.7721	
 -400.0000	2.711E-11	2.191E-11	5.470E+6	3.607E+6	   -0.0179	   14.0273	   10.2796	  -16.7744	
 -440.0000	2.523E-11	2.172E-11	6.168E+6	4.227E+6	   -0.0281	   14.0244	   10.2846	  -16.7708	
 -480.0000	2.380E-11	2.160E-11	6.452E+6	4.671E+6	   -0.0256	   14.0057	   10.2894	  -16.7797	
 -520.0000	2.326E-11	2.153E-11	6.845E+6	4.997E+6	   -0.0230	   14.0057	   10.2951	  -16.7732	
 -560.0000	2.167E-11	2.145E-11	6.904E+6	5.217E+6	   -0.0256	   14.0206	   10.2849	  -16.7733	
 -600.0000	2.214E-11	2.141E-11	6.939E+6	5.343E+6	   -0.0281	   14.0090	   10.2954	  -16.7702	
 -640.0000	2.093E-11	2.136E-11	6.696E+6	5.376E+6	   -0.0281	   13.9978	   10.2973	  -16.7767	
 -680.0000	2.003E-11	2.132E-11	6.499E+6	5.363E+6	   -0.0128	   14.0100	   10.2878	  -16.7782	
 -720.0000	1.981E-11	2.127E-11	6.281E+6	5.284E+6	   -0.0179	   13.9937	   10.2954	  -16.7821	
 -760.0000	2.043E-11	2.123E-11	6.083E+6	5.133E+6	   -0.0102	   14.0012	   10.2878	  -16.7850	
 -800.0000	1.860E-11	2.119E-11	5.619E+6	4.919E+6	   -0.0000	   13.9978	   10.2960	  -16.7781	
 -840.0000	1.912E-11	2.114E-11	5.506E+6	4.662E+6	   -0.0051	   13.9957	   10.2998	  -16.7754	
 -880.0000	1.872E-11	2.109E-11	5.015E+6	4.330E+6	   -0.0000	   13.9997	   10.2970	  -16.7756	
 -920.0000	1.811E-11	2.104E-11	4.500E+6	3.970E+6	   -0.0026	   13.9997	   10.2957	  -16.7770	
 -960.0000	1.635E-11	2.098E-11	3.784E+6	3.551E+6	    0.0026	   13.9868	   10.2932	  -16.7899	
-1000.0000	1.609E-11	2.091E-11	3.484E+6	3.106E+6	    0.0077	   13.9684	   10.2995	  -16.7968	
