GCD Test
Bias: 5000.000000
CV_N4789_21_LL_DIODE_GR_Irradiated_Annealed_60C_60min
Date/Time: 5/17/2022 4:55:59 PM
Sensor Name: 
Type: P
Annealing Status: Irradiated and Annealed at 60C for 60 Minutes
Environment: 0C
Tester: Catherine Tiley

Time Delay per Ramp Step (s): 0.500

CV Time Delay per Measurement (s) :0.500

AC Voltage (V): 0.500

Current Number of measurements per voltage: 1.000

IV Time Delay per Measurement (s) :0.000


BiasVoltage	LCR_Cp_freq1000.0	LCR_Cp_freq10000.0	LCR_Rp_freq1000.0	LCR_Rp_freq10000.0	Temperature	Air_Temp	Humidity	Dewpoint	
  -10.0000	1.558E-10	3.748E-11	4.989E+5	2.633E+5	   -0.2559	   16.3902	   10.2236	  -15.0201	
  -20.0000	1.367E-10	3.968E-11	7.444E+5	3.212E+5	   -0.2610	   16.3658	   10.2192	  -15.0441	
  -30.0000	1.214E-10	3.988E-11	9.361E+5	3.694E+5	   -0.2738	   16.3588	   10.2356	  -15.0300	
  -40.0000	1.104E-10	3.944E-11	1.091E+6	4.127E+5	   -0.2712	   16.3747	   10.2426	  -15.0096	
  -50.0000	1.019E-10	3.882E-11	1.222E+6	4.518E+5	   -0.2712	   16.3747	   10.2359	  -15.0174	
  -60.0000	9.529E-11	3.812E-11	1.336E+6	4.886E+5	   -0.2661	   16.3350	   10.2255	  -15.0603	
  -70.0000	8.979E-11	3.743E-11	1.437E+6	5.227E+5	   -0.2431	   16.3128	   10.2324	  -15.0691	
  -80.0000	8.512E-11	3.670E-11	1.533E+6	5.562E+5	   -0.2303	   16.3207	   10.2309	  -15.0650	
  -90.0000	8.131E-11	3.606E-11	1.611E+6	5.866E+5	   -0.2072	   16.2808	   10.2116	  -15.1184	
 -100.0000	7.779E-11	3.539E-11	1.690E+6	6.173E+5	   -0.1817	   16.2606	   10.2195	  -15.1246	
 -110.0000	7.473E-11	3.473E-11	1.761E+6	6.475E+5	   -0.1638	   16.2648	   10.2034	  -15.1404	
 -120.0000	7.230E-11	3.420E-11	1.832E+6	6.741E+5	   -0.1433	   16.2648	   10.1885	  -15.1580	
 -130.0000	6.967E-11	3.356E-11	1.889E+6	7.019E+5	   -0.1203	   16.2584	   10.1967	  -15.1532	
 -140.0000	6.729E-11	3.296E-11	1.952E+6	7.301E+5	   -0.0742	   16.2498	   10.1967	  -15.1599	
 -150.0000	6.528E-11	3.241E-11	2.001E+6	7.563E+5	   -0.0486	   16.2163	   10.1945	  -15.1882	
 -160.0000	6.329E-11	3.179E-11	2.052E+6	7.854E+5	   -0.0307	   16.1688	   10.1863	  -15.2344	
 -170.0000	6.142E-11	3.123E-11	2.106E+6	8.130E+5	    0.0077	   16.2006	   10.1904	  -15.2052	
 -180.0000	5.954E-11	3.063E-11	2.158E+6	8.435E+5	    0.0486	   16.1953	   10.1818	  -15.2193	
 -190.0000	5.766E-11	3.001E-11	2.217E+6	8.761E+5	    0.0665	   16.1644	   10.1799	  -15.2453	
 -200.0000	5.578E-11	2.936E-11	2.278E+6	9.132E+5	    0.0793	   16.1564	   10.1815	  -15.2496	
 -220.0000	5.207E-11	2.799E-11	2.421E+6	1.004E+6	    0.1023	   16.1529	   10.1790	  -15.2553	
 -240.0000	4.851E-11	2.664E-11	2.617E+6	1.124E+6	    0.1126	   16.1592	   10.1885	  -15.2392	
 -260.0000	4.448E-11	2.533E-11	2.835E+6	1.299E+6	    0.1203	   16.1787	   10.1894	  -15.2231	
 -280.0000	4.048E-11	2.420E-11	3.114E+6	1.545E+6	    0.1254	   16.1559	   10.1977	  -15.2309	
 -300.0000	3.684E-11	2.335E-11	3.457E+6	1.868E+6	    0.1407	   16.1470	   10.1989	  -15.2362	
 -320.0000	3.285E-11	2.277E-11	3.841E+6	2.246E+6	    0.1433	   16.1284	   10.1894	  -15.2618	
 -340.0000	3.079E-11	2.240E-11	4.217E+6	2.643E+6	    0.1433	   16.1407	   10.1920	  -15.2493	
 -360.0000	2.884E-11	2.216E-11	4.608E+6	3.021E+6	    0.1458	   16.1280	   10.1850	  -15.2673	
 -380.0000	2.664E-11	2.200E-11	4.901E+6	3.349E+6	    0.1433	   16.1274	   10.1834	  -15.2696	
 -400.0000	2.556E-11	2.189E-11	5.091E+6	3.647E+6	    0.1382	   16.1170	   10.1771	  -15.2851	
 -440.0000	2.436E-11	2.175E-11	5.649E+6	4.103E+6	    0.1382	   16.1207	   10.1803	  -15.2786	
 -480.0000	2.270E-11	2.165E-11	5.739E+6	4.423E+6	    0.1228	   16.0953	   10.1822	  -15.2958	
 -520.0000	2.292E-11	2.158E-11	5.942E+6	4.658E+6	    0.1151	   16.0679	   10.1806	  -15.3187	
 -560.0000	2.158E-11	2.153E-11	5.904E+6	4.783E+6	    0.1049	   16.0899	   10.1939	  -15.2861	
 -600.0000	2.081E-11	2.149E-11	6.065E+6	4.846E+6	    0.0998	   16.0803	   10.1743	  -15.3167	
 -640.0000	2.097E-11	2.144E-11	6.114E+6	4.864E+6	    0.0716	   16.0391	   10.1739	  -15.3488	
 -680.0000	2.041E-11	2.141E-11	5.704E+6	4.838E+6	    0.0614	   16.0345	   10.1869	  -15.3370	
 -720.0000	1.976E-11	2.137E-11	5.834E+6	4.780E+6	    0.0486	   16.0619	   10.1787	  -15.3256	
 -760.0000	2.089E-11	2.134E-11	5.528E+6	4.683E+6	    0.0205	   16.0315	   10.1774	  -15.3505	
 -800.0000	1.966E-11	2.130E-11	5.200E+6	4.556E+6	    0.0102	   15.9905	   10.1762	  -15.3835	
 -840.0000	1.999E-11	2.126E-11	4.984E+6	4.409E+6	   -0.0051	   15.9930	   10.1781	  -15.3794	
 -880.0000	1.925E-11	2.124E-11	4.680E+6	4.213E+6	   -0.0281	   15.9938	   10.1818	  -15.3743	
 -920.0000	1.953E-11	2.120E-11	4.593E+6	4.025E+6	   -0.0435	   15.9819	   10.1755	  -15.3909	
 -960.0000	1.859E-11	2.115E-11	4.086E+6	3.797E+6	   -0.0486	   15.9818	   10.1803	  -15.3854	
-1000.0000	1.724E-11	2.110E-11	3.741E+6	3.527E+6	   -0.0461	   15.9700	   10.1958	  -15.3761	
